time(s),Delta_T(K)
0.430,0.183
1.366,0.184
2.302,0.184
3.237,0.184
4.255,0.184
5.191,0.184
6.126,0.185
7.144,0.184
8.079,0.185
9.015,0.185
10.032,0.185
10.886,0.185
11.822,0.185
12.675,0.185
13.611,0.186
14.546,0.185
15.483,0.186
16.422,0.186
17.435,0.185
18.372,0.186
19.225,0.186
20.079,0.186
20.792,0.187
21.563,0.187
22.418,0.186
23.131,0.187
23.821,0.187
24.534,0.187
25.306,0.187
26.160,0.188
26.873,0.188
27.645,0.188
28.500,0.188
29.213,0.188
29.903,0.188
30.838,0.189
31.553,0.188
32.325,0.189
33.177,0.188
33.891,0.188
34.663,0.189
35.516,0.189
36.230,0.190
